UV-Vis Spectrum of Solution of Ferrocene in anhydrous Acetone
wavelength,absorbance
800,-0.0036907
799.9,-0.00368241
799.8,-0.00368247
799.7,-0.00365835
799.6,-0.00363984
799.5,-0.0036482
799.4,-0.00365083
799.3,-0.00365423
799.2,-0.0036519
799.1,-0.0036556
799,-0.00367232
798.9,-0.00367095
798.8,-0.00368074
798.7,-0.00367882
798.6,-0.00367584
798.5,-0.00368139
798.4,-0.00368587
798.3,-0.00367888
798.2,-0.00367686
798.1,-0.00367244
798,-0.00366229
797.9,-0.00365119
797.8,-0.00365083
797.7,-0.00366044
797.6,-0.0036833
797.5,-0.00371142
797.4,-0.00371404
797.3,-0.00371327
797.2,-0.0037039
797.1,-0.00366581
797,-0.00366969
796.9,-0.00367644
796.8,-0.003679
796.7,-0.00369888
796.6,-0.00370264
796.5,-0.00370509
796.4,-0.0036987
796.3,-0.00368432
796.2,-0.0036962
796.1,-0.00368891
796,-0.00368468
795.9,-0.00368647
795.8,-0.00367638
795.7,-0.00367494
795.6,-0.00367202
795.5,-0.00369405
795.4,-0.00369554
795.3,-0.00369721
795.2,-0.00371655
795.1,-0.00369739
795,-0.00366605
794.9,-0.00364725
794.8,-0.00363208
794.7,-0.00365387
794.6,-0.00367924
794.5,-0.00370485
794.4,-0.00368718
794.3,-0.00366557
794.2,-0.00364868
794.1,-0.00361704
794,-0.00364277
793.9,-0.0036297
793.8,-0.00363346
793.7,-0.00365566
793.6,-0.00364695
793.5,-0.00365578
793.4,-0.00365728
793.3,-0.00364289
793.2,-0.00364122
793.1,-0.00363292
793,-0.00363573
792.9,-0.0036285
792.8,-0.00363417
792.7,-0.00364002
792.6,-0.00362385
792.5,-0.00364922
792.4,-0.00364134
792.3,-0.00366605
792.2,-0.00370867
792.1,-0.00370264
792,-0.00370145
791.9,-0.00368987
791.8,-0.00366247
791.7,-0.00365202
791.6,-0.00366098
791.5,-0.0036525
791.4,-0.00363889
791.3,-0.00362271
791.2,-0.00361203
791.1,-0.00361406
791,-0.0036177
790.9,-0.00363686
790.8,-0.00364122
790.7,-0.0036491
790.6,-0.00365304
790.5,-0.00364337
790.4,-0.00364301
790.3,-0.0036442
790.2,-0.00363041
790.1,-0.00363793
790,-0.00364092
789.9,-0.00363596
789.8,-0.00366217
789.7,-0.00367381
789.6,-0.00367823
789.5,-0.00367817
789.4,-0.00367805
789.3,-0.00365083
789.2,-0.00364575
789.1,-0.0036399
789,-0.003622
788.9,-0.00363596
788.8,-0.00363364
788.7,-0.00363005
788.6,-0.00361806
788.5,-0.00361656
788.4,-0.00361943
788.3,-0.00362838
788.2,-0.00363805
788.1,-0.00364892
788,-0.00364313
787.9,-0.00364026
787.8,-0.00364832
787.7,-0.00363131
787.6,-0.00361406
787.5,-0.00360457
787.4,-0.00360683
787.3,-0.00360671
787.2,-0.00363161
787.1,-0.00364086
787,-0.00362791
786.9,-0.00363471
786.8,-0.00362617
786.7,-0.00360994
786.6,-0.003626
786.5,-0.00362462
786.4,-0.00361388
786.3,-0.00361173
786.2,-0.00359651
786.1,-0.00359621
786,-0.00360868
785.9,-0.00359131
785.8,-0.003586
785.7,-0.00359173
785.6,-0.00357293
785.5,-0.00359842
785.4,-0.0036245
785.3,-0.00362886
785.2,-0.00362474
785.1,-0.0036097
785,-0.00356547
784.9,-0.00355496
784.8,-0.00357454
784.7,-0.00358684
784.6,-0.00360003
784.5,-0.0035891
784.4,-0.00357406
784.3,-0.00357794
784.2,-0.00356911
784.1,-0.00355979
784,-0.00355609
783.9,-0.00354344
783.8,-0.00355872
783.7,-0.00356565
783.6,-0.00356075
783.5,-0.00355114
783.4,-0.00354039
783.3,-0.00354141
783.2,-0.00357078
783.1,-0.00359806
783,-0.00360755
782.9,-0.00359806
782.8,-0.00356827
782.7,-0.00355042
782.6,-0.00354278
782.5,-0.00355669
782.4,-0.00358117
782.3,-0.00357663
782.2,-0.00358445
782.1,-0.00358797
782,-0.00359203
781.9,-0.00360648
781.8,-0.00360624
781.7,-0.0036011
781.6,-0.00358905
781.5,-0.00359681
781.4,-0.00360928
781.3,-0.0036288
781.2,-0.0036288
781.1,-0.00361871
781,-0.00362731
780.9,-0.00361412
780.8,-0.00362438
780.7,-0.00362707
780.6,-0.00363041
780.5,-0.00363608
780.4,-0.00363579
780.3,-0.00364253
780.2,-0.00364396
780.1,-0.00365399
780,-0.00366151
779.9,-0.00367327
779.8,-0.00366945
779.7,-0.00367536
779.6,-0.00365751
779.5,-0.00364862
779.4,-0.00364367
779.3,-0.00361376
779.2,-0.00364719
779.1,-0.00366689
779,-0.00366742
778.9,-0.00369088
778.8,-0.00365441
778.7,-0.00363435
778.6,-0.00363023
778.5,-0.00363429
778.4,-0.00368062
778.3,-0.00369823
778.2,-0.00371512
778.1,-0.00369643
778,-0.00367172
777.9,-0.00365799
777.8,-0.0036331
777.7,-0.00363668
777.6,-0.00365262
777.5,-0.00366062
777.4,-0.00369196
777.3,-0.00370431
777.2,-0.00369208
777.1,-0.00368921
777,-0.0036876
776.9,-0.00367799
776.8,-0.00365178
776.7,-0.0036485
776.6,-0.00363125
776.5,-0.00363853
776.4,-0.00366653
776.3,-0.00368133
776.2,-0.00368945
776.1,-0.00368909
776,-0.00367381
775.9,-0.0036488
775.8,-0.00365954
775.7,-0.00366044
775.6,-0.00367578
775.5,-0.00368688
775.4,-0.00367435
775.3,-0.00368187
775.2,-0.00368527
775.1,-0.00369154
775,-0.00368629
774.9,-0.00368074
774.8,-0.00368151
774.7,-0.00366629
774.6,-0.00366862
774.5,-0.00366844
774.4,-0.00367202
774.3,-0.00369852
774.2,-0.00371613
774.1,-0.00372216
774,-0.0037104
773.9,-0.00369721
773.8,-0.0036913
773.7,-0.00368921
773.6,-0.00367817
773.5,-0.00368223
773.4,-0.00368205
773.3,-0.00367715
773.2,-0.00368772
773.1,-0.00366623
773,-0.00364814
772.9,-0.00364778
772.8,-0.00365298
772.7,-0.0036633
772.6,-0.0036636
772.5,-0.00367375
772.4,-0.00367471
772.3,-0.00369954
772.2,-0.00371315
772.1,-0.00370855
772,-0.00370324
771.9,-0.00368575
771.8,-0.00367924
771.7,-0.00368402
771.6,-0.00368032
771.5,-0.00369255
771.4,-0.0036996
771.3,-0.00369858
771.2,-0.00373112
771.1,-0.00371972
771,-0.00371196
770.9,-0.00370616
770.8,-0.00368497
770.7,-0.00369554
770.6,-0.00369476
770.5,-0.00370581
770.4,-0.00371082
770.3,-0.00370611
770.2,-0.00372145
770.1,-0.00371207
770,-0.00372216
769.9,-0.00370467
769.8,-0.00370551
769.7,-0.00369506
769.6,-0.00368151
769.5,-0.00370527
769.4,-0.00369632
769.3,-0.00371357
769.2,-0.00372115
769.1,-0.00371088
769,-0.00370999
768.9,-0.00370855
768.8,-0.00370396
768.7,-0.00371942
768.6,-0.00371595
768.5,-0.00370664
768.4,-0.00368909
768.3,-0.00365596
768.2,-0.00366498
768.1,-0.00365393
768,-0.00364856
767.9,-0.00367077
767.8,-0.00367972
767.7,-0.00368879
767.6,-0.00369488
767.5,-0.0036728
767.4,-0.00364898
767.3,-0.00363728
767.2,-0.00363704
767.1,-0.00365172
767,-0.00366492
766.9,-0.00368068
766.8,-0.00369924
766.7,-0.00370294
766.6,-0.00370205
766.5,-0.00369023
766.4,-0.00367023
766.3,-0.00366557
766.2,-0.00366223
766.1,-0.00368288
766,-0.0036996
765.9,-0.00368259
765.8,-0.00367041
765.7,-0.00364963
765.6,-0.00363746
765.5,-0.00365166
765.4,-0.00365363
765.3,-0.00365357
765.2,-0.00365363
765.1,-0.0036371
765,-0.00363752
764.9,-0.00363411
764.8,-0.00363089
764.7,-0.00363483
764.6,-0.00364158
764.5,-0.00363692
764.4,-0.00362564
764.3,-0.00362486
764.2,-0.00361985
764.1,-0.00361388
764,-0.00359603
763.9,-0.00360642
763.8,-0.00360391
763.7,-0.00361913
763.6,-0.00365077
763.5,-0.00363286
763.4,-0.00362337
763.3,-0.00361585
763.2,-0.00359889
763.1,-0.00360015
763,-0.00360063
762.9,-0.00361006
762.8,-0.00362253
762.7,-0.0036402
762.6,-0.00363656
762.5,-0.00362701
762.4,-0.00361119
762.3,-0.00359907
762.2,-0.00358982
762.1,-0.00357609
762,-0.00356553
761.9,-0.00355317
761.8,-0.00355842
761.7,-0.00354738
761.6,-0.00356797
761.5,-0.00359316
761.4,-0.00359758
761.3,-0.00361149
761.2,-0.00358511
761.1,-0.00356535
761,-0.00356863
760.9,-0.00356785
760.8,-0.00358373
760.7,-0.00358134
760.6,-0.0035715
760.5,-0.00356785
760.4,-0.00355663
760.3,-0.00355932
760.2,-0.00356493
760.1,-0.00357794
760,-0.00359454
759.9,-0.00359263
759.8,-0.00358361
759.7,-0.00356618
759.6,-0.00354851
759.5,-0.00354225
759.4,-0.00352977
759.3,-0.00353132
759.2,-0.00355735
759.1,-0.00355818
759,-0.00357221
758.9,-0.00359269
758.8,-0.00358182
758.7,-0.00358821
758.6,-0.00359173
758.5,-0.00357973
758.4,-0.00355908
758.3,-0.0035429
758.2,-0.00354141
758.1,-0.00354439
758,-0.00355997
757.9,-0.00357514
757.8,-0.00358636
757.7,-0.0035814
757.6,-0.00358403
757.5,-0.00358767
757.4,-0.00357926
757.3,-0.00358475
757.2,-0.00358302
757.1,-0.00357746
757,-0.00358331
756.9,-0.00357305
756.8,-0.00356869
756.7,-0.00356153
756.6,-0.00354284
756.5,-0.00356409
756.4,-0.00356547
756.3,-0.00355938
756.2,-0.00355508
756.1,-0.0035152
756,-0.00351407
755.9,-0.00351735
755.8,-0.00353281
755.7,-0.003554
755.6,-0.00355084
755.5,-0.00355544
755.4,-0.00355048
755.3,-0.00354099
755.2,-0.00354296
755.1,-0.00353526
755,-0.00353448
754.9,-0.00353866
754.8,-0.00352583
754.7,-0.00353663
754.6,-0.00355448
754.5,-0.00356553
754.4,-0.00358367
754.3,-0.003582
754.2,-0.00355203
754.1,-0.00353544
754,-0.0035232
753.9,-0.00351544
753.8,-0.00351825
753.7,-0.00353013
753.6,-0.0035438
753.5,-0.00355991
753.4,-0.0035675
753.3,-0.00355681
753.2,-0.00355454
753.1,-0.00354702
753,-0.00354792
752.9,-0.00354678
752.8,-0.00353974
752.7,-0.00354284
752.6,-0.00355412
752.5,-0.00356135
752.4,-0.00355645
752.3,-0.00353675
752.2,-0.00351019
752.1,-0.00349192
752,-0.00350207
751.9,-0.00351246
751.8,-0.00351699
751.7,-0.00353496
751.6,-0.00352464
751.5,-0.00353222
751.4,-0.00355526
751.3,-0.00355591
751.2,-0.00355968
751.1,-0.00355048
751,-0.00352995
750.9,-0.00352296
750.8,-0.0035232
750.7,-0.00351425
750.6,-0.00350929
750.5,-0.00352517
750.4,-0.00351873
750.3,-0.00349765
750.2,-0.00350207
750.1,-0.00349109
750,-0.00350804
749.9,-0.00353114
749.8,-0.00352726
749.7,-0.00352607
749.6,-0.00351085
749.5,-0.00352022
749.4,-0.00351228
749.3,-0.00350804
749.2,-0.0035189
749.1,-0.00350983
749,-0.00352046
748.9,-0.00353735
748.8,-0.00351801
748.7,-0.00353156
748.6,-0.00354613
748.5,-0.00354081
748.4,-0.00354427
748.3,-0.00352905
748.2,-0.00350858
748.1,-0.00348852
748,-0.00348936
747.9,-0.00349091
747.8,-0.0035118
747.7,-0.00353216
747.6,-0.00355215
747.5,-0.0035712
747.4,-0.00356612
747.3,-0.00356958
747.2,-0.00356069
747.1,-0.00355472
747,-0.00356171
746.9,-0.00353872
746.8,-0.00352517
746.7,-0.00353747
746.6,-0.00353986
746.5,-0.00355335
746.4,-0.00356379
746.3,-0.00354613
746.2,-0.00353216
746.1,-0.00350762
746,-0.00351491
745.9,-0.00351926
745.8,-0.00353031
745.7,-0.00354851
745.6,-0.00355162
745.5,-0.00355926
745.4,-0.00355263
745.3,-0.00356057
745.2,-0.003554
745.1,-0.00355329
745,-0.0035386
744.9,-0.00355436
744.8,-0.00356684
744.7,-0.00356714
744.6,-0.00356296
744.5,-0.00355412
744.4,-0.00354457
744.3,-0.00353216
744.2,-0.00354201
744.1,-0.00353741
744,-0.00354147
743.9,-0.00354213
743.8,-0.00356171
743.7,-0.00357311
743.6,-0.00357072
743.5,-0.00356899
743.4,-0.00355848
743.3,-0.00354654
743.2,-0.00354708
743.1,-0.00355753
743,-0.00355812
742.9,-0.00354756
742.8,-0.0035555
742.7,-0.00355985
742.6,-0.00355836
742.5,-0.00356535
742.4,-0.00355938
742.3,-0.00354505
742.2,-0.00354726
742.1,-0.00355794
742,-0.00356021
741.9,-0.00358361
741.8,-0.00357293
741.7,-0.00355132
741.6,-0.00353944
741.5,-0.00351407
741.4,-0.00351664
741.3,-0.00353944
741.2,-0.00354959
741.1,-0.0035592
741,-0.00356081
740.9,-0.00355078
740.8,-0.00354105
740.7,-0.00353831
740.6,-0.00354183
740.5,-0.0035426
740.4,-0.00355311
740.3,-0.00355532
740.2,-0.0035503
740.1,-0.00356839
740,-0.00358636
739.9,-0.0035826
739.8,-0.00357072
739.7,-0.00356272
739.6,-0.00356356
739.5,-0.00356081
739.4,-0.00357269
739.3,-0.00357812
739.2,-0.00356953
739.1,-0.00357585
739,-0.00357693
738.9,-0.00356535
738.8,-0.00357932
738.7,-0.00356881
738.6,-0.00355442
738.5,-0.00355323
738.4,-0.00354863
738.3,-0.00354583
738.2,-0.00354666
738.1,-0.00354624
738,-0.00354099
737.9,-0.00354678
737.8,-0.00355209
737.7,-0.00354714
737.6,-0.00355442
737.5,-0.00355186
737.4,-0.0035697
737.3,-0.00357675
737.2,-0.00358546
737.1,-0.00360337
737,-0.00359012
736.9,-0.00356803
736.8,-0.00356302
736.7,-0.00356732
736.6,-0.00355341
736.5,-0.00358224
736.4,-0.00358248
736.3,-0.00356296
736.2,-0.00357144
736.1,-0.00355496
736,-0.00354081
735.9,-0.00353096
735.8,-0.0035164
735.7,-0.00350786
735.6,-0.00351288
735.5,-0.00350141
735.4,-0.00349921
735.3,-0.00351473
735.2,-0.00351383
735.1,-0.00353448
735,-0.0035583
734.9,-0.00355872
734.8,-0.00356487
734.7,-0.00355323
734.6,-0.00355168
734.5,-0.00355395
734.4,-0.00354851
734.3,-0.00358134
734.2,-0.00357866
734.1,-0.00357567
734,-0.00358445
733.9,-0.00356153
733.8,-0.00357317
733.7,-0.00356899
733.6,-0.00356803
733.5,-0.00358517
733.4,-0.00356738
733.3,-0.00358522
733.2,-0.00359006
733.1,-0.00359669
733,-0.00361507
732.9,-0.00360272
732.8,-0.00358463
732.7,-0.00355436
732.6,-0.00353496
732.5,-0.00353842
732.4,-0.00352225
732.3,-0.00352481
732.2,-0.00352344
732.1,-0.00351282
732,-0.00353383
731.9,-0.00350911
731.8,-0.00348291
731.7,-0.00346297
731.6,-0.00345945
731.5,-0.00347401
731.4,-0.00350995
731.3,-0.00352822
731.2,-0.00350374
731.1,-0.00349085
731,-0.00345157
730.9,-0.00343838
730.8,-0.00344059
730.7,-0.00344375
730.6,-0.00345808
730.5,-0.00345175
730.4,-0.00344584
730.3,-0.00343372
730.2,-0.00340435
730.1,-0.00341157
730,-0.00340161
729.9,-0.00340316
729.8,-0.0034059
729.7,-0.00339635
729.6,-0.00342125
729.5,-0.00340596
729.4,-0.00336716
729.3,-0.00335618
729.2,-0.0033286
729.1,-0.00335051
729,-0.00338561
728.9,-0.0033708
728.8,-0.00337134
728.7,-0.00336358
728.6,-0.00338322
728.5,-0.00340184
728.4,-0.0033902
728.3,-0.00339564
728.2,-0.00336358
728.1,-0.00335063
728,-0.00335355
727.9,-0.00335403
727.8,-0.0033526
727.7,-0.0033606
727.6,-0.00334466
727.5,-0.00331045
727.4,-0.00330144
727.3,-0.00327117
727.2,-0.00328741
727.1,-0.00329875
727,-0.00332627
726.9,-0.00335922
726.8,-0.00337677
726.7,-0.00338895
726.6,-0.00338573
726.5,-0.0033837
726.4,-0.00339289
726.3,-0.00339743
726.2,-0.00340674
726.1,-0.00340304
726,-0.00340799
725.9,-0.0034185
725.8,-0.00340507
725.7,-0.00338543
725.6,-0.00338418
725.5,-0.00337015
725.4,-0.00339014
725.3,-0.00343575
725.2,-0.00343981
725.1,-0.0034385
725,-0.00343372
724.9,-0.00341157
724.8,-0.00339641
724.7,-0.00339319
724.6,-0.00339826
724.5,-0.00339904
724.4,-0.00339731
724.3,-0.00342232
724.2,-0.00341289
724.1,-0.00342154
724,-0.00342411
723.9,-0.00340214
723.8,-0.00341916
723.7,-0.00340441
723.6,-0.00339874
723.5,-0.00341056
723.4,-0.00337892
723.3,-0.00336764
723.2,-0.00336483
723.1,-0.00333552
723,-0.00333003
722.9,-0.00332359
722.8,-0.00329786
722.7,-0.00331093
722.6,-0.00329475
722.5,-0.00328544
722.4,-0.00329726
722.3,-0.00330562
722.2,-0.00332221
722.1,-0.00334269
722,-0.00334543
721.9,-0.00333027
721.8,-0.00333397
721.7,-0.00332233
721.6,-0.0033043
721.5,-0.00328514
721.4,-0.0032732
721.3,-0.00329052
721.2,-0.00331093
721.1,-0.00333409
721,-0.00333218
720.9,-0.00330944
720.8,-0.0032978
720.7,-0.00330096
720.6,-0.00331009
720.5,-0.0033372
720.4,-0.00334161
720.3,-0.00332735
720.2,-0.00332197
720.1,-0.00328598
720,-0.00328425
719.9,-0.00328896
719.8,-0.00331756
719.7,-0.00331386
719.6,-0.00329595
719.5,-0.00328329
719.4,-0.00324401
719.3,-0.00326515
719.2,-0.00327195
719.1,-0.0032658
719,-0.00327362
718.9,-0.00325953
718.8,-0.00326282
718.7,-0.00328037
718.6,-0.00328455
718.5,-0.00328502
718.4,-0.00327111
718.3,-0.0032584
718.2,-0.00324372
718.1,-0.00324097
718,-0.00325225
717.9,-0.00324676
717.8,-0.00325601
717.7,-0.00326712
717.6,-0.00325356
717.5,-0.00325882
717.4,-0.00324228
717.3,-0.00323255
717.2,-0.00325446
717.1,-0.00326252
717,-0.00328049
716.9,-0.00327547
716.8,-0.00325052
716.7,-0.00322849
716.6,-0.0032116
716.5,-0.0032196
716.4,-0.00321936
716.3,-0.00321721
716.2,-0.00322055
716.1,-0.00320533
716,-0.00323082
715.9,-0.00325822
715.8,-0.00327565
715.7,-0.00328484
715.6,-0.00326735
715.5,-0.00324545
715.4,-0.00324939
715.3,-0.00323983
715.2,-0.00324664
715.1,-0.00324545
715,-0.00323261
714.9,-0.00322342
714.8,-0.00321339
714.7,-0.00319966
714.6,-0.00319554
714.5,-0.00322372
714.4,-0.00321757
714.3,-0.00322658
714.2,-0.00320223
714.1,-0.00318563
714,-0.00320008
713.9,-0.00320712
713.8,-0.00322139
713.7,-0.00322199
713.6,-0.00321029
713.5,-0.00319315
713.4,-0.00318915
713.3,-0.00319041
713.2,-0.00318611
713.1,-0.00319506
713,-0.00319906
712.9,-0.00320109
712.8,-0.00319202
712.7,-0.003203
712.6,-0.00320903
712.5,-0.0031762
712.4,-0.00318856
712.3,-0.00317244
712.2,-0.00318342
712.1,-0.00321679
712,-0.00321566
711.9,-0.00321381
711.8,-0.00318766
711.7,-0.00319357
711.6,-0.00318139
711.5,-0.00317011
711.4,-0.00316772
711.3,-0.00313883
711.2,-0.00314188
711.1,-0.0031497
711,-0.00314206
710.9,-0.00315871
710.8,-0.00315537
710.7,-0.00314283
710.6,-0.00315137
710.5,-0.00315089
710.4,-0.00315352
710.3,-0.00315811
710.2,-0.00315823
710.1,-0.00314588
710,-0.00314343
709.9,-0.00313615
709.8,-0.0031106
709.7,-0.00310164
709.6,-0.00309197
709.5,-0.00309072
709.4,-0.00312857
709.3,-0.00310719
709.2,-0.00309585
709.1,-0.0030937
709,-0.00308111
708.9,-0.00309496
708.8,-0.00310916
708.7,-0.00311794
708.6,-0.00311048
708.5,-0.00311633
708.4,-0.003094
708.3,-0.00309376
708.2,-0.00307597
708.1,-0.00305347
708,-0.00304846
707.9,-0.00303831
707.8,-0.00304034
707.7,-0.0030515
707.6,-0.00307436
707.5,-0.00307544
707.4,-0.00306439
707.3,-0.00305741
707.2,-0.00306493
707.1,-0.00306601
707,-0.00307239
706.9,-0.00306869
706.8,-0.00304995
706.7,-0.00304087
706.6,-0.00303908
706.5,-0.00304261
706.4,-0.00304607
706.3,-0.00303079
706.2,-0.00304392
706.1,-0.00303759
706,-0.00304219
705.9,-0.00304917
705.8,-0.00303574
705.7,-0.00303789
705.6,-0.00301568
705.5,-0.00302458
705.4,-0.00302917
705.3,-0.00301891
705.2,-0.00300392
705.1,-0.00297497
705,-0.00297205
704.9,-0.00298542
704.8,-0.00299246
704.7,-0.00300219
704.6,-0.00299008
704.5,-0.00296315
704.4,-0.00296351
704.3,-0.00296023
704.2,-0.00296847
704.1,-0.00297497
704,-0.00296017
703.9,-0.00294996
703.8,-0.00292537
703.7,-0.00293623
703.6,-0.00294316
703.5,-0.00295599
703.4,-0.00295533
703.3,-0.0029431
703.2,-0.00291898
703.1,-0.00291588
703,-0.00291546
702.9,-0.00289761
702.8,-0.00290662
702.7,-0.00288251
702.6,-0.00289725
702.5,-0.00291223
702.4,-0.00292411
702.3,-0.00293844
702.2,-0.00292877
702.1,-0.00292178
702,-0.00292262
701.9,-0.00291564
701.8,-0.00288961
701.7,-0.00289546
701.6,-0.00288143
701.5,-0.00286537
701.4,-0.00287469
701.3,-0.002836
701.2,-0.0028412
701.1,-0.002852
701,-0.00287057
700.9,-0.00287922
700.8,-0.00285935
700.7,-0.00285618
700.6,-0.0028332
700.5,-0.0028409
700.4,-0.00284818
700.3,-0.00283917
700.2,-0.00281517
700.1,-0.00281732
700,-0.00280986
699.9,-0.00282729
699.8,-0.00283135
699.7,-0.0028249
699.6,-0.00283421
699.5,-0.00283612
699.4,-0.0028489
699.3,-0.00284723
699.2,-0.00285696
699.1,-0.0028261
699,-0.00281786
698.9,-0.00281326
698.8,-0.00278544
698.7,-0.002787
698.6,-0.00279362
698.5,-0.00280138
698.4,-0.00281839
698.3,-0.00281959
698.2,-0.0028126
698.1,-0.00280693
698,-0.00279613
697.9,-0.00279947
697.8,-0.00277022
697.7,-0.00275607
697.6,-0.00275339
697.5,-0.00274187
697.4,-0.00276694
697.3,-0.00276097
697.2,-0.00277512
697.1,-0.00277279
697,-0.00275315
696.9,-0.00274545
696.8,-0.00271315
696.7,-0.00272945
696.6,-0.00273858
696.5,-0.00274533
696.4,-0.00275261
696.3,-0.00275846
696.2,-0.00274873
696.1,-0.00277315
696,-0.00276455
695.9,-0.0027387
695.8,-0.00275082
695.7,-0.00272927
695.6,-0.00274605
695.5,-0.00276145
695.4,-0.00275613
695.3,-0.0027627
695.2,-0.00275112
695.1,-0.00272109
695,-0.00271471
694.9,-0.00270444
694.8,-0.00268713
694.7,-0.00269184
694.6,-0.00269853
694.5,-0.00269501
694.4,-0.00267716
694.3,-0.00266152
694.2,-0.00263185
694.1,-0.00260923
694,-0.00261352
693.9,-0.00261335
693.8,-0.00262749
693.7,-0.00265525
693.6,-0.00264379
693.5,-0.00266343
693.4,-0.00266982
693.3,-0.00264218
693.2,-0.00266862
693.1,-0.00263728
693,-0.00262296
692.9,-0.00262558
692.8,-0.00260636
692.7,-0.00260887
692.6,-0.00261102
692.5,-0.00260529
692.4,-0.00259293
692.3,-0.0025881
692.2,-0.00257598
692.1,-0.00257299
692,-0.00259221
691.9,-0.002606
691.8,-0.00261908
691.7,-0.00261991
691.6,-0.00261812
691.5,-0.00260732
691.4,-0.00259168
691.3,-0.00258284
691.2,-0.00257502
691.1,-0.00257031
691,-0.00256499
690.9,-0.00256941
690.8,-0.00255461
690.7,-0.00253413
690.6,-0.00252452
690.5,-0.00250625
690.4,-0.00250136
690.3,-0.00251354
690.2,-0.00252631
690.1,-0.00254482
690,-0.00256398
689.9,-0.00257347
689.8,-0.00256356
689.7,-0.00255831
689.6,-0.00254374
689.5,-0.00252876
689.4,-0.00251598
689.3,-0.00250279
689.2,-0.00249921
689.1,-0.00249258
689,-0.00248841
688.9,-0.00248029
688.8,-0.00248291
688.7,-0.00249199
688.6,-0.00249485
688.5,-0.00251043
688.4,-0.00252613
688.3,-0.00252589
688.2,-0.00253891
688.1,-0.0025238
688,-0.00252375
687.9,-0.00251598
687.8,-0.0025004
687.7,-0.0025062
687.6,-0.00248524
687.5,-0.0025047
687.4,-0.00249587
687.3,-0.00248811
687.2,-0.00248769
687.1,-0.00246769
687,-0.00249169
686.9,-0.00248357
686.8,-0.00247145
686.7,-0.00246751
686.6,-0.00244035
686.5,-0.00245343
686.4,-0.00246793
686.3,-0.00245671
686.2,-0.00247127
686.1,-0.0024499
686,-0.00244376
685.9,-0.00244113
685.8,-0.00242674
685.7,-0.00245343
685.6,-0.00244578
685.5,-0.00244071
685.4,-0.00245187
685.3,-0.00241815
685.2,-0.00241862
685.1,-0.00241683
685,-0.00240227
684.9,-0.00241683
684.8,-0.00241051
684.7,-0.00241158
684.6,-0.00240639
684.5,-0.00239516
684.4,-0.00238645
684.3,-0.00240137
684.2,-0.00240597
684.1,-0.0024157
684,-0.00242334
683.9,-0.00242871
683.8,-0.00242316
683.7,-0.00242668
683.6,-0.00243426
683.5,-0.0024391
683.4,-0.00243701
683.3,-0.00242561
683.2,-0.00240889
683.1,-0.00239451
683,-0.00240782
682.9,-0.00239958
682.8,-0.00239606
682.7,-0.00239439
682.6,-0.00237809
682.5,-0.00239188
682.4,-0.00239057
682.3,-0.00235702
682.2,-0.00235702
682.1,-0.00234544
682,-0.00235027
681.9,-0.00236932
681.8,-0.00235541
681.7,-0.00233052
681.6,-0.00229936
681.5,-0.00228688
681.4,-0.00229553
681.3,-0.00230061
681.2,-0.00233111
681.1,-0.00235272
681,-0.00233887
680.9,-0.00235087
680.8,-0.00232156
680.7,-0.00232526
680.6,-0.00233392
680.5,-0.0023421
680.4,-0.00234669
680.3,-0.00232729
680.2,-0.0023369
680.1,-0.00232383
680,-0.00233338
679.9,-0.00232992
679.8,-0.00230127
679.7,-0.00230897
679.6,-0.00229756
679.5,-0.00230168
679.4,-0.00229798
679.3,-0.00227112
679.2,-0.002295
679.1,-0.00229416
679,-0.00229995
678.9,-0.00231673
678.8,-0.00229559
678.7,-0.00227178
678.6,-0.00226491
678.5,-0.00224903
678.4,-0.00223315
678.3,-0.00224521
678.2,-0.00226646
678.1,-0.00225638
678,-0.00223375
677.9,-0.0022239
677.8,-0.00220187
677.7,-0.00221769
677.6,-0.00224665
677.5,-0.00225178
677.4,-0.00224271
677.3,-0.00221996
677.2,-0.00221226
677.1,-0.00219608
677,-0.00219155
676.9,-0.00221208
676.8,-0.00221011
676.7,-0.00221369
676.6,-0.00223578
676.5,-0.00220731
676.4,-0.00220516
676.3,-0.00221495
676.2,-0.0021974
676.1,-0.00220367
676,-0.00221101
675.9,-0.00219179
675.8,-0.0021663
675.7,-0.00216588
675.6,-0.00216588
675.5,-0.00217018
675.4,-0.00219053
675.3,-0.00216092
675.2,-0.00213758
675.1,-0.00211615
675,-0.00211765
674.9,-0.00213299
674.8,-0.0021275
674.7,-0.00213066
674.6,-0.00210129
674.5,-0.0021072
674.4,-0.00209275
674.3,-0.00208553
674.2,-0.00211395
674.1,-0.00210589
674,-0.00210183
673.9,-0.00209341
673.8,-0.00207944
673.7,-0.00207043
673.6,-0.00208631
673.5,-0.00209449
673.4,-0.00208744
673.3,-0.00207455
673.2,-0.00206637
673.1,-0.00206416
673,-0.00206153
672.9,-0.00207126
672.8,-0.00206762
672.7,-0.00204201
672.6,-0.00204028
672.5,-0.00205151
672.4,-0.00203252
672.3,-0.00203992
672.2,-0.00203795
672.1,-0.00203097
672,-0.00205461
671.9,-0.00206619
671.8,-0.00207132
671.7,-0.0020638
671.6,-0.00205037
671.5,-0.00204536
671.4,-0.0020518
671.3,-0.00206028
671.2,-0.00206106
671.1,-0.00206094
671,-0.00203861
670.9,-0.00202172
670.8,-0.00200632
670.7,-0.00200011
670.6,-0.00199307
670.5,-0.00198733
670.4,-0.00198363
670.3,-0.00197993
670.2,-0.00198638
670.1,-0.001997
670,-0.00201629
669.9,-0.00203551
669.8,-0.00202106
669.7,-0.00201688
669.6,-0.00201647
669.5,-0.00198351
669.4,-0.00200662
669.3,-0.00199909
669.2,-0.00200554
669.1,-0.00203031
669,-0.00201455
668.9,-0.00201103
668.8,-0.00199951
668.7,-0.00197563
668.6,-0.00198984
668.5,-0.00198638
668.4,-0.0019597
668.3,-0.00197253
668.2,-0.00194119
668.1,-0.00193546
668,-0.00194716
667.9,-0.00193039
667.8,-0.00193594
667.7,-0.00195492
667.6,-0.00194656
667.5,-0.00195247
667.4,-0.00195743
667.3,-0.00195367
667.2,-0.00197354
667.1,-0.00197068
667,-0.00196453
666.9,-0.00195856
666.8,-0.00197277
666.7,-0.00196346
666.6,-0.00196364
666.5,-0.00195683
666.4,-0.00192854
666.3,-0.00193653
666.2,-0.00193325
666.1,-0.00192728
666,-0.00192006
665.9,-0.00192448
665.8,-0.00193952
665.7,-0.00196376
665.6,-0.00196668
665.5,-0.00195564
665.4,-0.00195552
665.3,-0.00193009
665.2,-0.00195086
665.1,-0.00195701
665,-0.00194973
664.9,-0.00196746
664.8,-0.00194853
664.7,-0.00192448
664.6,-0.00190836
664.5,-0.0019077
664.4,-0.00191469
664.3,-0.00193504
664.2,-0.00195522
664.1,-0.00193671
664,-0.00191779
663.9,-0.00194101
663.8,-0.00193092
663.7,-0.00195874
663.6,-0.00198829
663.5,-0.00195367
663.4,-0.00196387
663.3,-0.00194376
663.2,-0.0019151
663.1,-0.00192257
663,-0.00191087
662.9,-0.00191355
662.8,-0.00191027
662.7,-0.00189194
662.6,-0.0018763
662.5,-0.00186436
662.4,-0.0018732
662.3,-0.00189218
662.2,-0.00189141
662.1,-0.00187529
662,-0.00187374
661.9,-0.00186311
661.8,-0.00186019
661.7,-0.00186926
661.6,-0.0018489
661.5,-0.0018381
661.4,-0.00184413
661.3,-0.00183643
661.2,-0.0018449
661.1,-0.00185153
661,-0.0018535
660.9,-0.0018529
660.8,-0.00185505
660.7,-0.00185577
660.6,-0.00182509
660.5,-0.00182133
660.4,-0.00181213
660.3,-0.00182544
660.2,-0.00186562
660.1,-0.00186478
660,-0.00185929
659.9,-0.0018387
659.8,-0.00181643
659.7,-0.00182753
659.6,-0.00184126
659.5,-0.00184174
659.4,-0.00184902
659.3,-0.00183667
659.2,-0.0018569
659.1,-0.00185947
659,-0.00184037
658.9,-0.00183464
658.8,-0.00181559
658.7,-0.00183416
658.6,-0.00184102
658.5,-0.00185965
658.4,-0.00186538
658.3,-0.00184186
658.2,-0.00181995
658.1,-0.00181243
658,-0.00180586
657.9,-0.00178933
657.8,-0.00181542
657.7,-0.001815
657.6,-0.00180133
657.5,-0.00180133
657.4,-0.00180706
657.3,-0.00181512
657.2,-0.0018215
657.1,-0.00182479
657,-0.0018255
656.9,-0.00181912
656.8,-0.00181028
656.7,-0.00182222
656.6,-0.001807
656.5,-0.00179219
656.4,-0.00178784
656.3,-0.00176641
656.2,-0.00176694
656.1,-0.00176056
656,-0.00177088
655.9,-0.00179631
655.8,-0.00181512
655.7,-0.00183971
655.6,-0.00183541
655.5,-0.00182586
655.4,-0.00182192
655.3,-0.00180264
655.2,-0.00179822
655.1,-0.0018067
655,-0.00178921
654.9,-0.0017913
654.8,-0.0017953
654.7,-0.00180192
654.6,-0.00180192
654.5,-0.00179506
654.4,-0.00179554
654.3,-0.0017907
654.2,-0.00181243
654.1,-0.00182461
654,-0.0018224
653.9,-0.00179046
653.8,-0.00176324
653.7,-0.00173005
653.6,-0.00171955
653.5,-0.00172778
653.4,-0.0017214
653.3,-0.00173728
653.2,-0.00172134
653.1,-0.00172641
653,-0.00173059
652.9,-0.0017371
652.8,-0.0017491
652.7,-0.00173334
652.6,-0.00171549
652.5,-0.00170373
652.4,-0.00171143
652.3,-0.00172164
652.2,-0.00174247
652.1,-0.00174492
652,-0.00174987
651.9,-0.0017605
651.8,-0.00176432
651.7,-0.00178772
651.6,-0.00179034
651.5,-0.00180413
651.4,-0.00179375
651.3,-0.00176629
651.2,-0.00175721
651.1,-0.00173196
651,-0.00173465
650.9,-0.00173799
650.8,-0.00172092
650.7,-0.00174229
650.6,-0.00174319
650.5,-0.00175602
650.4,-0.00176468
650.3,-0.00172677
650.2,-0.00171047
650.1,-0.00168373
650,-0.00169662
649.9,-0.00172611
649.8,-0.00175309
649.7,-0.00175357
649.6,-0.00174784
649.5,-0.00173405
649.4,-0.00171459
649.3,-0.00172396
649.2,-0.00172987
649.1,-0.00171716
649,-0.0017282
648.9,-0.00172713
648.8,-0.00172498
648.7,-0.00173674
648.6,-0.00173161
648.5,-0.00172504
648.4,-0.00169752
648.3,-0.00169268
648.2,-0.00170385
648.1,-0.00172068
648,-0.00172008
647.9,-0.00171238
647.8,-0.00169071
647.7,-0.00167901
647.6,-0.00168851
647.5,-0.00168164
647.4,-0.00164869
647.3,-0.00160816
647.2,-0.0015807
647.1,-0.00155766
647,-0.00157401
646.9,-0.00157604
646.8,-0.00158147
646.7,-0.0015961
646.6,-0.00160189
646.5,-0.00161449
646.4,-0.00161693
646.3,-0.00160571
646.2,-0.00158559
646.1,-0.00159037
646,-0.00158571
645.9,-0.00159323
645.8,-0.00160105
645.7,-0.00160105
645.6,-0.00159968
645.5,-0.0016186
645.4,-0.00160619
645.3,-0.00159007
645.2,-0.00157151
645.1,-0.00152106
645,-0.00151289
644.9,-0.0015065
644.8,-0.00149611
644.7,-0.00150787
644.6,-0.00151169
644.5,-0.00150841
644.4,-0.00151677
644.3,-0.00151259
644.2,-0.00150644
644.1,-0.00149581
644,-0.00149193
643.9,-0.00149653
643.8,-0.00149408
643.7,-0.00151002
643.6,-0.00149032
643.5,-0.00147558
643.4,-0.00148179
643.3,-0.00147731
643.2,-0.00150638
643.1,-0.00151175
643,-0.00149713
642.9,-0.00148984
642.8,-0.00146376
642.7,-0.00144561
642.6,-0.00144704
642.5,-0.00144358
642.4,-0.00144973
642.3,-0.00147152
642.2,-0.00146597
642.1,-0.00145671
642,-0.00146179
641.9,-0.00144298
641.8,-0.00143105
641.7,-0.00143397
641.6,-0.00143337
641.5,-0.00143672
641.4,-0.00142496
641.3,-0.00142717
641.2,-0.00141254
641.1,-0.00140681
641,-0.00140866
640.9,-0.00140126
640.8,-0.00139863
640.7,-0.00138442
640.6,-0.00138425
640.5,-0.00137649
640.4,-0.00138269
640.3,-0.00139487
640.2,-0.00143152
640.1,-0.00142687
640,-0.00142884
639.9,-0.00142114
639.8,-0.00139123
639.7,-0.0013883
639.6,-0.00137147
639.5,-0.00136843
639.4,-0.00133828
639.3,-0.00133136
639.2,-0.00132246
639.1,-0.00131363
639,-0.00135332
638.9,-0.00134891
638.8,-0.00136604
638.7,-0.00137959
638.6,-0.001355
638.5,-0.00135476
638.4,-0.00134103
638.3,-0.00131888
638.2,-0.00133177
638.1,-0.00134819
638,-0.00134932
637.9,-0.00136634
637.8,-0.00134509
637.7,-0.0013227
637.6,-0.00130855
637.5,-0.00129011
637.4,-0.00129082
637.3,-0.00129351
637.2,-0.0012922
637.1,-0.00127805
637,-0.0012636
636.9,-0.00126754
636.8,-0.00126498
636.7,-0.0012845
636.6,-0.00129942
636.5,-0.00127853
636.4,-0.00128897
636.3,-0.00127566
636.2,-0.001295
636.1,-0.0012999
636,-0.00127644
635.9,-0.00126044
635.8,-0.00123012
635.7,-0.00121591
635.6,-0.00119693
635.5,-0.001194
635.4,-0.00118314
635.3,-0.00119155
635.2,-0.00121865
635.1,-0.00122976
635,-0.00123507
634.9,-0.00123704
634.8,-0.00122027
634.7,-0.00121889
634.6,-0.00120916
634.5,-0.00125274
634.4,-0.00124235
634.3,-0.00123722
634.2,-0.00125966
634.1,-0.00119591
634,-0.00124205
633.9,-0.00124874
633.8,-0.00121907
633.7,-0.00124062
633.6,-0.00120116
633.5,-0.00118881
633.4,-0.00119191
633.3,-0.00117508
633.2,-0.0011638
633.1,-0.00115609
633,-0.00113299
632.9,-0.00112446
632.8,-0.0011238
632.7,-0.00111204
632.6,-0.00112786
632.5,-0.00112655
632.4,-0.00112852
632.3,-0.00111258
632.2,-0.00109879
632.1,-0.00111079
632,-0.00109533
631.9,-0.00111574
631.8,-0.00111288
631.7,-0.00109163
631.6,-0.00109139
631.5,-0.00109037
631.4,-0.00109282
631.3,-0.00108995
631.2,-0.00110446
631.1,-0.00110201
631,-0.00109091
630.9,-0.00108763
630.8,-0.00108404
630.7,-0.00109586
630.6,-0.0011198
630.5,-0.00111813
630.4,-0.0010995
630.3,-0.00107998
630.2,-0.00105294
630.1,-0.00103718
630,-0.00103581
629.9,-0.0010154
629.8,-0.00102656
629.7,-0.00102208
629.6,-0.00102501
629.5,-0.00102698
629.4,-0.00101056
629.3,-0.0010179
629.2,-0.00100328
629.1,-0.00100501
629,-0.00100352
628.9,-0.00100196
628.8,-0.00101772
628.7,-0.00102572
628.6,-0.00104089
628.5,-0.00105378
628.4,-0.00106709
628.3,-0.00105312
628.2,-0.00104047
628.1,-0.00103157
628,-0.00100429
627.9,-0.00102316
627.8,-0.00103312
627.7,-0.0010225
627.6,-0.00103701
627.5,-0.00103766
627.4,-0.00104083
627.3,-0.00104685
627.2,-0.00103462
627.1,-0.00103289
627,-0.00101778
626.9,-0.000999398
626.8,-0.0010114
626.7,-0.000995159
626.6,-0.00100561
626.5,-0.00101647
626.4,-0.00100853
626.3,-0.00100674
626.2,-0.000993607
626.1,-0.00100764
626,-0.00102023
625.9,-0.00103002
625.8,-0.00104166
625.7,-0.00104387
625.6,-0.00101038
625.5,-0.000997726
625.4,-0.000972177
625.3,-0.000943703
625.2,-0.000922213
625.1,-0.000902932
625,-0.000914274
624.9,-0.000920781
624.8,-0.000939167
624.7,-0.000935645
624.6,-0.000914573
624.5,-0.0009132
624.4,-0.00090723
624.3,-0.000929496
624.2,-0.000920184
624.1,-0.000916423
624,-0.000911528
623.9,-0.000905798
623.8,-0.000935107
623.7,-0.000914931
623.6,-0.000923825
623.5,-0.000889859
623.4,-0.000857804
623.3,-0.00085649
623.2,-0.000839179
623.1,-0.000842999
623,-0.00084676
622.9,-0.000848133
622.8,-0.000861684
622.7,-0.000890098
622.6,-0.000898157
622.5,-0.000884845
622.4,-0.000879293
622.3,-0.000864847
622.2,-0.000844432
622.1,-0.000873324
622,-0.000875174
621.9,-0.000871832
621.8,-0.000884308
621.7,-0.000859177
621.6,-0.000836254
621.5,-0.000807243
621.4,-0.000778948
621.3,-0.000786947
621.2,-0.000800736
621.1,-0.000848969
621,-0.00087416
620.9,-0.000869683
620.8,-0.000873742
620.7,-0.000841328
620.6,-0.000842044
620.5,-0.000840671
620.4,-0.00081942
620.3,-0.000797453
620.2,-0.000772083
620.1,-0.000773695
620,-0.000781276
619.9,-0.000794767
619.8,-0.000798169
619.7,-0.000761278
619.6,-0.000746414
619.5,-0.000752444
619.4,-0.000746832
619.3,-0.000755249
619.2,-0.000763964
619.1,-0.000749757
619,-0.000763845
618.9,-0.000777813
618.8,-0.000754055
618.7,-0.00074916
618.6,-0.000726298
618.5,-0.000694719
618.4,-0.000708986
618.3,-0.000692929
618.2,-0.000687138
618.1,-0.000681766
618,-0.000660455
617.9,-0.000661112
617.8,-0.000660216
617.7,-0.000666484
617.6,-0.000662007
617.5,-0.000658008
617.4,-0.000660694
617.3,-0.000659321
617.2,-0.000676035
617.1,-0.000678065
617,-0.000654665
616.9,-0.000679796
616.8,-0.000673767
616.7,-0.000652217
616.6,-0.00065353
616.5,-0.000623743
616.4,-0.000621952
616.3,-0.00061264
616.2,-0.000610252
616.1,-0.000619326
616,-0.000610193
615.9,-0.000623564
615.8,-0.000650426
615.7,-0.000654665
615.6,-0.000645352
615.5,-0.000648695
615.4,-0.000631563
615.3,-0.000625534
615.2,-0.000629354
615.1,-0.000619147
615,-0.000598194
614.9,-0.000577719
614.8,-0.000571272
614.7,-0.00057754
614.6,-0.000566616
614.5,-0.000570436
614.4,-0.000563094
614.3,-0.000570496
614.2,-0.000597239
614.1,-0.000573182
614,-0.000565661
613.9,-0.000554617
613.8,-0.000529665
613.7,-0.000540768
613.6,-0.000536709
613.5,-0.0005151
613.4,-0.000504713
613.3,-0.000480657
613.2,-0.000484895
613.1,-0.00050919
613,-0.000517906
612.9,-0.000531277
612.8,-0.00052686
612.7,-0.000502624
612.6,-0.000494864
612.5,-0.000477911
612.4,-0.000468121
612.3,-0.000482149
612.2,-0.00048973
612.1,-0.000519159
612,-0.000503161
611.9,-0.000472956
611.8,-0.00046048
611.7,-0.000410635
611.6,-0.000421559
611.5,-0.000402398
611.4,-0.000421142
611.3,-0.00043511
611.2,-0.000424484
611.1,-0.0004566
611,-0.000414098
610.9,-0.000410337
610.8,-0.000398756
610.7,-0.000390339
610.6,-0.00039613
610.5,-0.000391951
610.4,-0.000413739
610.3,-0.000408188
610.2,-0.000402219
610.1,-0.000408486
610,-0.000387713
609.9,-0.00039601
609.8,-0.00039016
609.7,-0.000387295
609.6,-0.000393145
609.5,-0.000371775
609.4,-0.000380012
609.3,-0.000378281
609.2,-0.000380729
609.1,-0.000378281
609,-0.000386579
608.9,-0.000383952
608.8,-0.000381027
608.7,-0.000381684
608.6,-0.000378162
608.5,-0.000364552
608.4,-0.000353448
608.3,-0.000365029
608.2,-0.000356314
608.1,-0.000342524
608,-0.000352314
607.9,-0.000352076
607.8,-0.000372789
607.7,-0.000387295
607.6,-0.000379475
607.5,-0.000358821
607.4,-0.000321333
607.3,-0.000328675
607.2,-0.000289934
607.1,-0.000289874
607,-0.000280383
606.9,-0.000286591
606.8,-0.000322706
606.7,-0.000309573
606.6,-0.00032784
606.5,-0.000311066
606.4,-0.000289934
606.3,-0.000295247
606.2,-0.000274951
606.1,-0.000254715
606,-0.000255789
605.9,-0.00024779
605.8,-0.000260982
605.7,-0.000264086
605.6,-0.000249402
605.5,-0.000254058
605.4,-0.000231732
605.3,-0.000241104
605.2,-0.000254297
605.1,-0.000231971
605,-0.000252506
604.9,-0.000245999
604.8,-0.000240865
604.7,-0.000266295
604.6,-0.000257878
604.5,-0.000266116
604.4,-0.000258535
604.3,-0.000246716
604.2,-0.000230658
604.1,-0.000225285
604,-0.000234001
603.9,-0.000237821
603.8,-0.00025358
603.7,-0.000232628
603.6,-0.000241164
603.5,-0.000238478
603.4,-0.000209228
603.3,-0.000188335
603.2,-0.000156637
603.1,-0.000114792
603,-0.000110315
602.9,-0.000134431
602.8,-0.000126134
602.7,-0.000156637
602.6,-0.000156458
602.5,-0.000120761
602.4,-0.000123686
602.3,-0.00010739
602.2,-0.000106733
602.1,-0.000121895
602,-0.000129655
601.9,-0.000133715
601.8,-0.000125895
601.7,-0.000135446
601.6,-0.000128342
601.5,-0.000103868
601.4,-9.16304E-05
601.3,-5.96941E-05
601.2,-4.65614E-05
601.1,-4.88297E-05
601,-5.14563E-05
600.9,-8.60191E-05
600.8,-9.15707E-05
600.7,-0.000102316
600.6,-0.000124701
600.5,-9.12125E-05
600.4,-9.86146E-05
600.3,-7.18716E-05
600.2,-3.707E-05
600.1,-4.6442E-05
600,-3.03246E-05
599.9,-3.43838E-05
599.8,-3.52792E-05
599.7,-2.7698E-05
599.6,-1.00286E-05
599.5,-1.49832E-05
599.4,-2.0296E-05
599.3,2.36388E-05
599.2,1.96393E-05
599.1,3.34884E-05
599,5.7366E-05
598.9,2.10123E-05
598.8,1.92215E-05
598.7,2.44746E-06
598.6,-2.07735E-05
598.5,-1.83261E-05
598.4,-9.84952E-06
598.3,2.50118E-05
598.2,4.44124E-05
598.1,6.09476E-05
598,5.45007E-05
597.9,4.97848E-05
597.8,4.7994E-05
597.7,4.30991E-05
597.6,5.93956E-05
597.5,4.42333E-05
597.4,6.3216E-05
597.3,7.32446E-05
597.2,7.92737E-05
597.1,0.000115926
597,0.000122791
596.9,0.000131984
596.8,0.000122612
596.7,0.000100286
596.6,7.59308E-05
596.5,5.33665E-05
596.4,5.06802E-05
596.3,7.07971E-05
596.2,7.16926E-05
596.1,8.30941E-05
596,9.15707E-05
595.9,0.000108106
595.8,0.000141117
595.7,0.00016392
595.6,0.000186007
595.5,0.000171322
595.4,0.000160577
595.3,0.000155443
595.2,0.000164159
595.1,0.00015228
595,0.000155205
594.9,0.000157473
594.8,0.000146071
594.7,0.000170128
594.6,0.000181828
594.5,0.000171023
594.4,0.00018535
594.3,0.000186723
594.2,0.000191379
594.1,0.000201885
594,0.000201408
593.9,0.000190006
593.8,0.000191857
593.7,0.000201647
593.6,0.000184037
593.5,0.000181828
593.4,0.000156339
593.3,0.000146728
593.2,0.000169292
593.1,0.000163502
593,0.000201467
592.9,0.000217525
592.8,0.000225763
592.7,0.000265758
592.6,0.000258177
592.5,0.000281159
592.4,0.000303305
592.3,0.000307066
592.2,0.0003082
592.1,0.000295665
592,0.000275787
591.9,0.000264862
591.8,0.000286591
591.7,0.000310946
591.6,0.000346703
591.5,0.000363119
591.4,0.000350344
591.3,0.000355538
591.2,0.00033942
591.1,0.00033566
591,0.000368969
590.9,0.000371655
590.8,0.000373864
590.7,0.0003824
590.6,0.000373744
590.5,0.000373744
590.4,0.000397025
590.3,0.000396667
590.2,0.000397324
590.1,0.000373506
590,0.000360731
589.9,0.000354702
589.8,0.000357329
589.7,0.00036294
589.6,0.000358522
589.5,0.000378639
589.4,0.000392727
589.3,0.000398995
589.2,0.000398577
589.1,0.000394637
589,0.000388907
588.9,0.000428663
588.8,0.000443467
588.7,0.000453078
588.6,0.00045266
588.5,0.000438811
588.4,0.000449616
588.3,0.000469912
588.2,0.000484238
588.1,0.00049761
588,0.000494744
587.9,0.000490924
587.8,0.000504833
587.7,0.00050931
587.6,0.000528591
587.5,0.000523875
587.4,0.000525427
587.3,0.00051898
587.2,0.000527695
587.1,0.000548469
587,0.000546738
586.9,0.000547156
586.8,0.000534381
586.7,0.000554498
586.6,0.000562378
586.5,0.000573302
586.4,0.000588524
586.3,0.000564825
586.2,0.000571093
586.1,0.000583808
586,0.000578913
585.9,0.000597478
585.8,0.00059903
585.7,0.000607327
585.6,0.000607566
585.5,0.000626608
585.4,0.000622549
585.3,0.000627444
585.2,0.000671558
585.1,0.000688332
585,0.000714597
584.9,0.000732983
584.8,0.000718657
584.7,0.000695376
584.6,0.000714001
584.5,0.00070242
584.4,0.000713225
584.3,0.000742534
584.2,0.000733162
584.1,0.000764502
584,0.000762293
583.9,0.000762054
583.8,0.000765218
583.7,0.000765934
583.6,0.00080969
583.5,0.000820913
583.4,0.000820913
583.3,0.000811541
583.2,0.000802109
583.1,0.000827956
583,0.000868907
582.9,0.000903231
582.8,0.000906872
582.7,0.000889382
582.6,0.000883173
582.5,0.000891949
582.4,0.000897321
582.3,0.000891292
582.2,0.000881442
582.1,0.000859535
582,0.00085846
581.9,0.000868787
581.8,0.000894157
581.7,0.000914334
581.6,0.000913021
581.5,0.000923527
581.4,0.000926273
581.3,0.000937256
581.2,0.000982146
581.1,0.000993369
581,0.00101617
580.9,0.0010305
580.8,0.0010413
580.7,0.00103796
580.6,0.00104674
580.5,0.00105217
580.4,0.00104548
580.3,0.00106315
580.2,0.00105354
580.1,0.00103432
580,0.00103748
579.9,0.00103187
579.8,0.00104381
579.7,0.00107784
579.6,0.00106894
579.5,0.00108691
579.4,0.00109497
579.3,0.00108309
579.2,0.00110804
579.1,0.00111717
579,0.00111855
578.9,0.00113699
578.8,0.00114075
578.7,0.00114398
578.6,0.00113126
578.5,0.00113962
578.4,0.00114057
578.3,0.00116618
578.2,0.0011943
578.1,0.00123668
578,0.0012599
577.9,0.00124056
577.8,0.00126641
577.7,0.00123907
577.6,0.00125369
577.5,0.00128247
577.4,0.00127399
577.3,0.00128933
577.2,0.00126319
577.1,0.00127202
577,0.00128647
576.9,0.00127035
576.8,0.00129393
576.7,0.00128091
576.6,0.00128283
576.5,0.00132169
576.4,0.00134419
576.3,0.00138735
576.2,0.00139433
576.1,0.00137684
576,0.00137034
575.9,0.00137917
575.8,0.00140902
575.7,0.00143887
575.6,0.00144967
575.5,0.00145892
575.4,0.00145558
575.3,0.00145242
575.2,0.00143588
575.1,0.00144179
575,0.00144812
574.9,0.00145755
574.8,0.00149575
574.7,0.00150005
574.6,0.00150232
574.5,0.00153915
574.4,0.00154005
574.3,0.00153605
574.2,0.00157067
574.1,0.00156082
574,0.00157073
573.9,0.00159144
573.8,0.00154948
573.7,0.001561
573.6,0.00159628
573.5,0.00163341
573.4,0.00167424
573.3,0.00168886
573.2,0.00167895
573.1,0.00165561
573,0.00167454
572.9,0.0017174
572.8,0.00176826
572.7,0.00179733
572.6,0.00181822
572.5,0.00183273
572.4,0.0018529
572.3,0.00187409
572.2,0.00186663
572.1,0.00185768
572,0.00184365
571.9,0.00184514
571.8,0.00188388
571.7,0.00188687
571.6,0.00189206
571.5,0.00190382
571.4,0.00189415
571.3,0.00192782
571.2,0.00195904
571.1,0.00199378
571,0.00203115
570.9,0.00203616
570.8,0.002049
570.7,0.00205043
570.6,0.00205813
570.5,0.00206923
570.4,0.0020715
570.3,0.00210153
570.2,0.00211908
570.1,0.0021306
570,0.00216397
569.9,0.00217889
569.8,0.0022057
569.7,0.00223632
569.6,0.00222629
569.5,0.00223453
569.4,0.00222354
569.3,0.00222504
569.2,0.00225441
569.1,0.00225835
569,0.00229631
568.9,0.00232795
568.8,0.00236215
568.7,0.00237576
568.6,0.00239075
568.5,0.00240842
568.4,0.00242382
568.3,0.0024342
568.2,0.00244543
568.1,0.00244005
568,0.00244316
567.9,0.00248035
567.8,0.00250118
567.7,0.0025395
567.6,0.0025752
567.5,0.00257502
567.4,0.00257848
567.3,0.00257878
567.2,0.00260576
567.1,0.00265161
567,0.00268778
566.9,0.00271387
566.8,0.00269769
566.7,0.00265824
566.6,0.00265728
566.5,0.00268581
566.4,0.00270539
566.3,0.00276377
566.2,0.00280884
566.1,0.00283308
566,0.00285397
565.9,0.00288895
565.8,0.00291176
565.7,0.00291546
565.6,0.00292966
565.5,0.00292966
565.4,0.00292901
565.3,0.00294268
565.2,0.00296882
565.1,0.00297843
565,0.00299228
564.9,0.00303359
564.8,0.00306099
564.7,0.003102
564.6,0.00313418
564.5,0.00315262
564.4,0.00317107
564.3,0.00318408
564.2,0.0032079
564.1,0.00322634
564,0.00323148
563.9,0.00325553
563.8,0.00328902
563.7,0.00329314
563.6,0.00334627
563.5,0.00338943
563.4,0.00338823
563.3,0.00343647
563.2,0.00343897
563.1,0.00344435
563,0.00347921
562.9,0.00350064
562.8,0.00352165
562.7,0.00356905
562.6,0.00360272
562.5,0.00362743
562.4,0.00366492
562.3,0.00368062
562.2,0.00369315
562.1,0.00370628
562,0.00373452
561.9,0.0037424
561.8,0.0037726
561.7,0.00381612
561.6,0.00387211
561.5,0.00393312
561.4,0.00396918
561.3,0.00400792
561.2,0.00400368
561.1,0.00401377
561,0.00404624
560.9,0.00406188
560.8,0.00408648
560.7,0.00409537
560.6,0.0041008
560.5,0.00414157
560.4,0.00416569
560.3,0.00418545
560.2,0.00418772
560.1,0.00417626
560,0.00424502
559.9,0.00430066
559.8,0.00438339
559.7,0.00442751
559.6,0.00441963
559.5,0.00445903
559.4,0.00446458
559.3,0.00449836
559.2,0.00452045
559.1,0.00452153
559,0.00454343
558.9,0.00457227
558.8,0.00459125
558.7,0.00464503
558.6,0.00470329
558.5,0.00475284
558.4,0.00482018
558.3,0.00487324
558.2,0.00492249
558.1,0.00492822
558,0.00495061
557.9,0.00496732
557.8,0.0049798
557.7,0.00503979
557.6,0.00508325
557.5,0.00508892
557.4,0.005119
557.3,0.00513238
557.2,0.00517721
557.1,0.005256
557,0.00529815
556.9,0.00535002
556.8,0.0053779
556.7,0.00540189
556.6,0.00541121
556.5,0.0054475
556.4,0.00549066
556.3,0.00554737
556.2,0.00561076
556.1,0.00564246
556,0.0056741
555.9,0.00571445
555.8,0.0057554
555.7,0.00580555
555.6,0.00582721
555.5,0.00585515
555.4,0.00590267
555.3,0.00590141
555.2,0.00597048
555.1,0.00599692
555,0.00604086
554.9,0.00612843
554.8,0.00616156
554.7,0.0062089
554.6,0.00626023
554.5,0.00632703
554.4,0.0063887
554.3,0.00642887
554.2,0.00645925
554.1,0.00647871
554,0.00650528
553.9,0.00655053
553.8,0.00661989
553.7,0.00668973
553.6,0.00677008
553.5,0.00684655
553.4,0.00687037
553.3,0.00688786
553.2,0.006914
553.1,0.00694236
553,0.00697322
552.9,0.00701883
552.8,0.00706682
552.7,0.00713069
552.6,0.00719558
552.5,0.00723856
552.4,0.00727396
552.3,0.00730494
552.2,0.00734076
552.1,0.00741412
552,0.00749519
551.9,0.00753088
551.8,0.00760819
551.7,0.00767785
551.6,0.00772202
551.5,0.00779389
551.4,0.00784571
551.3,0.00787538
551.2,0.00793394
551.1,0.00798527
551,0.00806502
550.9,0.00815349
550.8,0.00822614
550.7,0.00833496
550.6,0.00838284
550.5,0.00841979
550.4,0.00847608
550.3,0.00852192
550.2,0.00859266
550.1,0.00865217
550,0.00872273
549.9,0.00878667
549.8,0.00885072
549.7,0.00892438
549.6,0.00897309
549.5,0.0090532
549.4,0.00913331
549.3,0.00922273
549.2,0.00928678
549.1,0.00930254
549,0.00935185
548.9,0.00940157
548.8,0.00946849
548.7,0.00956102
548.6,0.00961862
548.5,0.00967539
548.4,0.00976607
548.3,0.00983973
548.2,0.00994407
548.1,0.0100146
548,0.0100574
547.9,0.0101362
547.8,0.0101888
547.7,0.0102685
547.6,0.0103576
547.5,0.0104225
547.4,0.0104942
547.3,0.010596
547.2,0.0106718
547.1,0.0107375
547,0.0108102
546.9,0.0108438
546.8,0.0109035
546.7,0.0110097
546.6,0.0111146
546.5,0.0112371
546.4,0.0113341
546.3,0.0114166
546.2,0.0115053
546.1,0.0115643
546,0.0116452
545.9,0.0117044
545.8,0.01175
545.7,0.0118327
545.6,0.0119077
545.5,0.0119827
545.4,0.0120781
545.3,0.0121669
545.2,0.0122675
545.1,0.0123652
545,0.0124445
544.9,0.0125292
544.8,0.0126168
544.7,0.0127153
544.6,0.0128096
544.5,0.0128881
544.4,0.0129573
544.3,0.0130669
544.2,0.0131439
544.1,0.013247
544,0.0133339
543.9,0.0133913
543.8,0.0134784
543.7,0.0135729
543.6,0.0136962
543.5,0.0137901
543.4,0.0138992
543.3,0.0140045
543.2,0.0140769
543.1,0.0142124
543,0.0143107
542.9,0.0144062
542.8,0.0145169
542.7,0.0146058
542.6,0.0147512
542.5,0.0148614
542.4,0.0149583
542.3,0.0150482
542.2,0.0151405
542.1,0.0152407
542,0.015375
541.9,0.0155049
541.8,0.015595
541.7,0.0157003
541.6,0.0157975
541.5,0.0159015
541.4,0.0160097
541.3,0.016141
541.2,0.0162645
541.1,0.0163461
541,0.0164667
540.9,0.0165644
540.8,0.0166768
540.7,0.0168061
540.6,0.0169236
540.5,0.0170338
540.4,0.0171377
540.3,0.0172716
540.2,0.0173956
540.1,0.0175158
540,0.0176388
539.9,0.0177749
539.8,0.0178975
539.7,0.0180203
539.6,0.0181669
539.5,0.0182561
539.4,0.0183602
539.3,0.0184972
539.2,0.0185968
539.1,0.0187352
539,0.0188722
538.9,0.0190034
538.8,0.0191644
538.7,0.0192877
538.6,0.01946
538.5,0.0195861
538.4,0.0197161
538.3,0.0198813
538.2,0.019996
538.1,0.0201374
538,0.0202829
537.9,0.0203888
537.8,0.020537
537.7,0.0206675
537.6,0.0207707
537.5,0.020937
537.4,0.0210515
537.3,0.0212206
537.2,0.0213666
537.1,0.0215358
537,0.0216944
536.9,0.0218355
536.8,0.0219949
536.7,0.0221342
536.6,0.0222865
536.5,0.0224336
536.4,0.022598
536.3,0.0227232
536.2,0.0228909
536.1,0.0230744
536,0.0232458
535.9,0.023399
535.8,0.0235244
535.7,0.0236369
535.6,0.0237862
535.5,0.0239355
535.4,0.0241205
535.3,0.0242952
535.2,0.0244591
535.1,0.024659
535,0.0247882
534.9,0.0249486
534.8,0.0250882
534.7,0.0252502
534.6,0.0254424
534.5,0.0256351
534.4,0.0258168
534.3,0.0259804
534.2,0.0261436
534.1,0.0262943
534,0.0264662
533.9,0.0266578
533.8,0.0268333
533.7,0.0270254
533.6,0.0272144
533.5,0.0273837
533.4,0.0275973
533.3,0.0277477
533.2,0.0279083
533.1,0.0280768
533,0.0282861
532.9,0.0284917
532.8,0.0286909
532.7,0.0289106
532.6,0.0290409
532.5,0.0292207
532.4,0.0294082
532.3,0.0295925
532.2,0.0298045
532.1,0.0300329
532,0.0302214
531.9,0.0304054
531.8,0.0306138
531.7,0.0307984
531.6,0.0310188
531.5,0.0312324
531.4,0.0314474
531.3,0.0316825
531.2,0.0318919
531.1,0.0321127
531,0.0322969
530.9,0.0324618
530.8,0.0326951
530.7,0.0328893
530.6,0.0331088
530.5,0.0333664
530.4,0.0335658
530.3,0.0338023
530.2,0.0340487
530.1,0.0342739
530,0.0344923
529.9,0.034711
529.8,0.0349407
529.7,0.0351692
529.6,0.0354343
529.5,0.0356552
529.4,0.035889
529.3,0.0361025
529.2,0.0363296
529.1,0.0365896
529,0.0368221
528.9,0.0370742
528.8,0.0373229
528.7,0.0375507
528.6,0.03777
528.5,0.0380086
528.4,0.0382467
528.3,0.0384865
528.2,0.0387676
528.1,0.0390329
528,0.0392816
527.9,0.0395712
527.8,0.0398341
527.7,0.040092
527.6,0.0403633
527.5,0.0406041
527.4,0.0408574
527.3,0.041138
527.2,0.041389
527.1,0.0416466
527,0.041893
526.9,0.0421391
526.8,0.0424318
526.7,0.0427249
526.6,0.042988
526.5,0.0432771
526.4,0.0435087
526.3,0.0437783
526.2,0.0440441
526.1,0.0442953
526,0.0445885
525.9,0.0448666
525.8,0.0452144
525.7,0.0455138
525.6,0.0458109
525.5,0.046104
525.4,0.0463625
525.3,0.0466698
525.2,0.046969
525.1,0.0472563
525,0.0475709
524.9,0.0478293
524.8,0.0481276
524.7,0.0484384
524.6,0.0487416
524.5,0.0490978
524.4,0.0493598
524.3,0.0496486
524.2,0.0499466
524.1,0.0502244
524,0.050576
523.9,0.0509424
523.8,0.0512568
523.7,0.0515874
523.6,0.0518768
523.5,0.0521696
523.4,0.0524822
523.3,0.0528188
523.2,0.0531764
523.1,0.0535058
523,0.0538293
522.9,0.0541233
522.8,0.0544579
522.7,0.0547844
522.6,0.0551356
522.5,0.0555171
522.4,0.0558772
522.3,0.0562023
522.2,0.0565232
522.1,0.0568281
522,0.0571653
521.9,0.0575384
521.8,0.0578992
521.7,0.0582602
521.6,0.0585744
521.5,0.0589281
521.4,0.0593235
521.3,0.0596578
521.2,0.0600233
521.1,0.0603326
521,0.0606385
520.9,0.0610109
520.8,0.0613581
520.7,0.0617467
520.6,0.0621001
520.5,0.0624417
520.4,0.0628189
520.3,0.0631933
520.2,0.0635956
520.1,0.0639622
520,0.0643453
519.9,0.0647217
519.8,0.0650933
519.7,0.0655294
519.6,0.0659158
519.5,0.0662892
519.4,0.0666642
519.3,0.067027
519.2,0.0674273
519.1,0.0678285
519,0.0682485
518.9,0.068662
518.8,0.069049
518.7,0.0694456
518.6,0.0698351
518.5,0.0702142
518.4,0.0706314
518.3,0.0709856
518.2,0.0713735
518.1,0.071773
518,0.0721688
517.9,0.0726345
517.8,0.0730776
517.7,0.0735084
517.6,0.0739132
517.5,0.0743745
517.4,0.0747636
517.3,0.0751821
517.2,0.0756029
517.1,0.075983
517,0.0764255
516.9,0.0768498
516.8,0.0773083
516.7,0.0777317
516.6,0.0781946
516.5,0.0786725
516.4,0.0791245
516.3,0.0795801
516.2,0.0799988
516.1,0.0804234
516,0.0808614
515.9,0.0813428
515.8,0.0818056
515.7,0.0822412
515.6,0.082706
515.5,0.0831235
515.4,0.0835568
515.3,0.0840297
515.2,0.0844764
515.1,0.0849445
515,0.0854398
514.9,0.0859353
514.8,0.0864096
514.7,0.0869114
514.6,0.0873821
514.5,0.0878161
514.4,0.0882756
514.3,0.0887192
514.2,0.0891656
514.1,0.0896312
514,0.0901448
513.9,0.0906454
513.8,0.0911585
513.7,0.0916856
513.6,0.0921378
513.5,0.0926347
513.4,0.0931326
513.3,0.0936611
513.2,0.0941689
513.1,0.0946571
513,0.0951809
512.9,0.0956817
512.8,0.0962315
512.7,0.0967472
512.6,0.0972446
512.5,0.0977387
512.4,0.0982789
512.3,0.0988287
512.2,0.099353
512.1,0.0998948
512,0.1004
511.9,0.100916
511.8,0.101487
511.7,0.102078
511.6,0.1026
511.5,0.103149
511.4,0.103705
511.3,0.104187
511.2,0.104735
511.1,0.105299
511,0.105823
510.9,0.106409
510.8,0.106985
510.7,0.107527
510.6,0.108075
510.5,0.108592
510.4,0.109163
510.3,0.109763
510.2,0.110347
510.1,0.110921
510,0.111486
509.9,0.112047
509.8,0.112633
509.7,0.113186
509.6,0.113756
509.5,0.114317
509.4,0.114872
509.3,0.115487
509.2,0.11608
509.1,0.116625
509,0.117202
508.9,0.11776
508.8,0.118341
508.7,0.118949
508.6,0.119544
508.5,0.120157
508.4,0.120738
508.3,0.121358
508.2,0.121938
508.1,0.122558
508,0.123153
507.9,0.123731
507.8,0.124381
507.7,0.124953
507.6,0.12557
507.5,0.126199
507.4,0.126822
507.3,0.127455
507.2,0.12805
507.1,0.128667
507,0.129233
506.9,0.12984
506.8,0.130492
506.7,0.131092
506.6,0.131755
506.5,0.132391
506.4,0.133042
506.3,0.133681
506.2,0.134314
506.1,0.134959
506,0.135558
505.9,0.136204
505.8,0.136833
505.7,0.137472
505.6,0.138122
505.5,0.138776
505.4,0.139423
505.3,0.140094
505.2,0.140765
505.1,0.141407
505,0.142028
504.9,0.14268
504.8,0.143331
504.7,0.144016
504.6,0.144692
504.5,0.145334
504.4,0.146016
504.3,0.146663
504.2,0.147364
504.1,0.148013
504,0.148652
503.9,0.149327
503.8,0.150008
503.7,0.150737
503.6,0.151471
503.5,0.152181
503.4,0.152876
503.3,0.153571
503.2,0.15425
503.1,0.154943
503,0.155632
502.9,0.156327
502.8,0.156994
502.7,0.157647
502.6,0.158355
502.5,0.159016
502.4,0.159741
502.3,0.160527
502.2,0.161214
502.1,0.161965
502,0.162678
501.9,0.163363
501.8,0.164096
501.7,0.164804
501.6,0.165512
501.5,0.166242
501.4,0.166965
501.3,0.167698
501.2,0.16841
501.1,0.169131
501,0.169875
500.9,0.170582
500.8,0.171335
500.7,0.172073
500.6,0.172839
500.5,0.173655
500.4,0.174423
500.3,0.17515
500.2,0.1759
500.1,0.176619
500,0.178592
499.9,0.179346
499.8,0.180087
499.7,0.180824
499.6,0.181538
499.5,0.182294
499.4,0.18302
499.3,0.18375
499.2,0.184468
499.1,0.18523
499,0.185973
498.9,0.186771
498.8,0.187509
498.7,0.188257
498.6,0.189016
498.5,0.189728
498.4,0.190532
498.3,0.19127
498.2,0.192056
498.1,0.192855
498,0.193625
497.9,0.194379
497.8,0.19513
497.7,0.195863
497.6,0.196607
497.5,0.197395
497.4,0.198187
497.3,0.198996
497.2,0.199776
497.1,0.200567
497,0.201365
496.9,0.202141
496.8,0.202932
496.7,0.203693
496.6,0.204415
496.5,0.205192
496.4,0.206007
496.3,0.206814
496.2,0.207636
496.1,0.208447
496,0.209198
495.9,0.209981
495.8,0.210815
495.7,0.211606
495.6,0.212405
495.5,0.213229
495.4,0.214
495.3,0.214831
495.2,0.215639
495.1,0.216432
495,0.217201
494.9,0.217978
494.8,0.218785
494.7,0.219577
494.6,0.220373
494.5,0.221164
494.4,0.22198
494.3,0.222774
494.2,0.223632
494.1,0.224479
494,0.225303
493.9,0.226135
493.8,0.226922
493.7,0.227787
493.6,0.228626
493.5,0.229442
493.4,0.230259
493.3,0.230985
493.2,0.231771
493.1,0.232605
493,0.233491
492.9,0.234333
492.8,0.235171
492.7,0.235983
492.6,0.236769
492.5,0.237579
492.4,0.238411
492.3,0.239239
492.2,0.240056
492.1,0.240925
492,0.24177
491.9,0.242611
491.8,0.243446
491.7,0.244244
491.6,0.245045
491.5,0.24591
491.4,0.246738
491.3,0.247565
491.2,0.248384
491.1,0.249174
491,0.250042
490.9,0.250903
490.8,0.251749
490.7,0.25259
490.6,0.253415
490.5,0.254248
490.4,0.255099
490.3,0.25593
490.2,0.256757
490.1,0.257595
490,0.258407
489.9,0.259234
489.8,0.260101
489.7,0.260924
489.6,0.261772
489.5,0.262652
489.4,0.263459
489.3,0.264316
489.2,0.265162
489.1,0.26598
489,0.266799
488.9,0.267634
488.8,0.268486
488.7,0.269323
488.6,0.270176
488.5,0.271006
488.4,0.271828
488.3,0.272678
488.2,0.273515
488.1,0.274359
488,0.275238
487.9,0.276084
487.8,0.276926
487.7,0.277796
487.6,0.278578
487.5,0.279437
487.4,0.280326
487.3,0.281114
487.2,0.28199
487.1,0.28276
487,0.283563
486.9,0.284416
486.8,0.285257
486.7,0.286135
486.6,0.286992
486.5,0.28786
486.4,0.28871
486.3,0.28956
486.2,0.290401
486.1,0.291243
486,0.292104
485.9,0.292961
485.8,0.293806
485.7,0.294647
485.6,0.295449
485.5,0.296298
485.4,0.297143
485.3,0.297966
485.2,0.298811
485.1,0.299648
485,0.300477
484.9,0.301307
484.8,0.302159
484.7,0.303021
484.6,0.30386
484.5,0.304689
484.4,0.305506
484.3,0.30632
484.2,0.307177
484.1,0.308064
484,0.308942
483.9,0.309806
483.8,0.31067
483.7,0.311497
483.6,0.312322
483.5,0.313185
483.4,0.314006
483.3,0.314856
483.2,0.315692
483.1,0.316503
483,0.317325
482.9,0.318162
482.8,0.319018
482.7,0.319879
482.6,0.320703
482.5,0.321579
482.4,0.322416
482.3,0.323204
482.2,0.324053
482.1,0.324847
482,0.325639
481.9,0.326475
481.8,0.327304
481.7,0.328116
481.6,0.328963
481.5,0.329807
481.4,0.330642
481.3,0.331478
481.2,0.332337
481.1,0.33316
481,0.334026
480.9,0.334857
480.8,0.335705
480.7,0.336538
480.6,0.337298
480.5,0.338134
480.4,0.338893
480.3,0.339702
480.2,0.340548
480.1,0.34137
480,0.342232
479.9,0.343046
479.8,0.343882
479.7,0.344686
479.6,0.345482
479.5,0.346279
479.4,0.347073
479.3,0.347905
479.2,0.348686
479.1,0.349541
479,0.35034
478.9,0.351153
478.8,0.351978
478.7,0.352746
478.6,0.353565
478.5,0.354327
478.4,0.35513
478.3,0.355952
478.2,0.356741
478.1,0.357544
478,0.358301
477.9,0.359051
477.8,0.359854
477.7,0.360616
477.6,0.361425
477.5,0.362192
477.4,0.362912
477.3,0.363732
477.2,0.364525
477.1,0.365348
477,0.366177
476.9,0.366922
476.8,0.367698
476.7,0.368464
476.6,0.36925
476.5,0.370083
476.4,0.370863
476.3,0.371639
476.2,0.37239
476.1,0.373165
476,0.373949
475.9,0.374729
475.8,0.375484
475.7,0.376247
475.6,0.376999
475.5,0.377782
475.4,0.378597
475.3,0.379329
475.2,0.380082
475.1,0.380876
475,0.381617
474.9,0.382371
474.8,0.383154
474.7,0.38389
474.6,0.384621
474.5,0.385391
474.4,0.386118
474.3,0.386849
474.2,0.387623
474.1,0.388364
474,0.389142
473.9,0.389886
473.8,0.390615
473.7,0.391358
473.6,0.392056
473.5,0.392757
473.4,0.393481
473.3,0.394212
473.2,0.394977
473.1,0.395716
473,0.39645
472.9,0.39719
472.8,0.397876
472.7,0.398586
472.6,0.399288
472.5,0.399986
472.4,0.400728
472.3,0.401447
472.2,0.402159
472.1,0.402864
472,0.403557
471.9,0.404268
471.8,0.404939
471.7,0.405649
471.6,0.406359
471.5,0.407025
471.4,0.407788
471.3,0.408467
471.2,0.409157
471.1,0.409871
471,0.410519
470.9,0.411205
470.8,0.411893
470.7,0.412571
470.6,0.413232
470.5,0.413929
470.4,0.414585
470.3,0.415268
470.2,0.415969
470.1,0.416584
470,0.41726
469.9,0.41789
469.8,0.418532
469.7,0.419207
469.6,0.419841
469.5,0.42051
469.4,0.421166
469.3,0.42185
469.2,0.422498
469.1,0.423152
469,0.423791
468.9,0.424436
468.8,0.425097
468.7,0.425748
468.6,0.426398
468.5,0.427
468.4,0.427594
468.3,0.428199
468.2,0.428793
468.1,0.4294
468,0.430036
467.9,0.430648
467.8,0.431276
467.7,0.431882
467.6,0.432491
467.5,0.433116
467.4,0.433745
467.3,0.434369
467.2,0.435003
467.1,0.435576
467,0.436146
466.9,0.436793
466.8,0.437361
466.7,0.438018
466.6,0.438619
466.5,0.439173
466.4,0.439739
466.3,0.440277
466.2,0.440867
466.1,0.441451
466,0.44204
465.9,0.442635
465.8,0.443205
465.7,0.443788
465.6,0.444368
465.5,0.444936
465.4,0.445513
465.3,0.446004
465.2,0.446615
465.1,0.447146
465,0.447696
464.9,0.448269
464.8,0.448761
464.7,0.449298
464.6,0.44981
464.5,0.45037
464.4,0.45091
464.3,0.451458
464.2,0.452016
464.1,0.452567
464,0.453085
463.9,0.453582
463.8,0.454067
463.7,0.454563
463.6,0.455052
463.5,0.455555
463.4,0.456084
463.3,0.456628
463.2,0.457129
463.1,0.457677
463,0.458215
462.9,0.45864
462.8,0.459173
462.7,0.459638
462.6,0.460062
462.5,0.460587
462.4,0.461122
462.3,0.461631
462.2,0.462157
462.1,0.462676
462,0.463124
461.9,0.46359
461.8,0.464035
461.7,0.464475
461.6,0.464933
461.5,0.465396
461.4,0.465842
461.3,0.466317
461.2,0.46676
461.1,0.467205
461,0.467679
460.9,0.468077
460.8,0.46849
460.7,0.468953
460.6,0.469366
460.5,0.469844
460.4,0.470332
460.3,0.47076
460.2,0.471289
460.1,0.471732
460,0.47217
459.9,0.472608
459.8,0.47296
459.7,0.473361
459.6,0.473745
459.5,0.474132
459.4,0.474554
459.3,0.474961
459.2,0.475401
459.1,0.475829
459,0.476229
458.9,0.47667
458.8,0.477034
458.7,0.477396
458.6,0.477752
458.5,0.478104
458.4,0.478544
458.3,0.479004
458.2,0.479453
458.1,0.479843
458,0.480233
457.9,0.480616
457.8,0.480998
457.7,0.481417
457.6,0.481752
457.5,0.482054
457.4,0.482433
457.3,0.48283
457.2,0.483225
457.1,0.483633
457,0.483984
456.9,0.484293
456.8,0.484634
456.7,0.485021
456.6,0.485378
456.5,0.485705
456.4,0.486031
456.3,0.486336
456.2,0.486666
456.1,0.486988
456,0.487357
455.9,0.487742
455.8,0.488107
455.7,0.488516
455.6,0.488806
455.5,0.48911
455.4,0.489448
455.3,0.489742
455.2,0.490116
455.1,0.490416
455,0.490688
454.9,0.490991
454.8,0.491302
454.7,0.491612
454.6,0.491951
454.5,0.492292
454.4,0.492623
454.3,0.492964
454.2,0.493223
454.1,0.493542
454,0.493782
453.9,0.494013
453.8,0.494353
453.7,0.494609
453.6,0.494886
453.5,0.495145
453.4,0.495436
453.3,0.495687
453.2,0.496039
453.1,0.49634
453,0.496564
452.9,0.496842
452.8,0.497039
452.7,0.497338
452.6,0.497648
452.5,0.497871
452.4,0.498131
452.3,0.498351
452.2,0.498537
452.1,0.498804
452,0.499058
451.9,0.499301
451.8,0.499534
451.7,0.499779
451.6,0.499988
451.5,0.500234
451.4,0.500482
451.3,0.500684
451.2,0.500883
451.1,0.501095
451,0.501272
450.9,0.501479
450.8,0.501747
450.7,0.501959
450.6,0.502223
450.5,0.502492
450.4,0.502663
450.3,0.502862
450.2,0.503051
450.1,0.50321
450,0.5034
449.9,0.503593
449.8,0.503823
449.7,0.504008
449.6,0.504248
449.5,0.504443
449.4,0.504545
449.3,0.504727
449.2,0.504824
449.1,0.505008
449,0.505228
448.9,0.505385
448.8,0.505569
448.7,0.505768
448.6,0.505918
448.5,0.506057
448.4,0.506237
448.3,0.506318
448.2,0.506456
448.1,0.50664
448,0.506811
447.9,0.506977
447.8,0.507107
447.7,0.50729
447.6,0.50745
447.5,0.507624
447.4,0.507802
447.3,0.507922
447.2,0.508067
447.1,0.508143
447,0.50831
446.9,0.508423
446.8,0.50846
446.7,0.508586
446.6,0.508661
446.5,0.508794
446.4,0.508997
446.3,0.509119
446.2,0.509255
446.1,0.509356
446,0.50943
445.9,0.509536
445.8,0.509642
445.7,0.509735
445.6,0.509846
445.5,0.509951
445.4,0.510061
445.3,0.510219
445.2,0.510303
445.1,0.510399
445,0.510458
444.9,0.510495
444.8,0.510619
444.7,0.510716
444.6,0.510822
444.5,0.510904
444.4,0.510992
444.3,0.511055
444.2,0.511146
444.1,0.511213
444,0.511288
443.9,0.511382
443.8,0.51143
443.7,0.51152
443.6,0.511575
443.5,0.511696
443.4,0.511789
443.3,0.51186
443.2,0.511871
443.1,0.511867
443,0.511888
442.9,0.511934
442.8,0.512023
442.7,0.512108
442.6,0.512198
442.5,0.51227
442.4,0.512325
442.3,0.512305
442.2,0.512291
442.1,0.512307
442,0.51239
441.9,0.512472
441.8,0.512532
441.7,0.512591
441.6,0.512598
441.5,0.512632
441.4,0.512641
441.3,0.512645
441.2,0.51261
441.1,0.51262
441,0.512703
440.9,0.51267
440.8,0.512701
440.7,0.512684
440.6,0.512634
440.5,0.512715
440.4,0.512685
440.3,0.512714
440.2,0.512726
440.1,0.512688
440,0.512692
439.9,0.512697
439.8,0.512684
439.7,0.512737
439.6,0.512728
439.5,0.512724
439.4,0.51273
439.3,0.512681
439.2,0.512689
439.1,0.512657
439,0.512607
438.9,0.512554
438.8,0.512567
438.7,0.512577
438.6,0.512606
438.5,0.51261
438.4,0.51257
438.3,0.5125
438.2,0.512405
438.1,0.512344
438,0.512283
437.9,0.51228
437.8,0.512241
437.7,0.512253
437.6,0.512272
437.5,0.512132
437.4,0.512134
437.3,0.512073
437.2,0.511957
437.1,0.511954
437,0.511906
436.9,0.511804
436.8,0.511771
436.7,0.511713
436.6,0.511638
436.5,0.511577
436.4,0.511507
436.3,0.511466
436.2,0.51138
436.1,0.511269
436,0.511205
435.9,0.511105
435.8,0.511
435.7,0.51097
435.6,0.510856
435.5,0.510758
435.4,0.510682
435.3,0.510524
435.2,0.510382
435.1,0.510323
435,0.510229
434.9,0.510238
434.8,0.510161
434.7,0.510032
434.6,0.509952
434.5,0.509784
434.4,0.509676
434.3,0.509583
434.2,0.509458
434.1,0.509329
434,0.509236
433.9,0.509087
433.8,0.50891
433.7,0.508778
433.6,0.508625
433.5,0.508538
433.4,0.508475
433.3,0.508393
433.2,0.5083
433.1,0.508133
433,0.508
432.9,0.507839
432.8,0.507689
432.7,0.507572
432.6,0.507384
432.5,0.507211
432.4,0.507072
432.3,0.506854
432.2,0.506713
432.1,0.506547
432,0.506353
431.9,0.506237
431.8,0.506031
431.7,0.505897
431.6,0.50571
431.5,0.505576
431.4,0.50553
431.3,0.505372
431.2,0.505289
431.1,0.505085
431,0.504867
430.9,0.504695
430.8,0.504457
430.7,0.504279
430.6,0.504068
430.5,0.503879
430.4,0.503694
430.3,0.503503
430.2,0.503299
430.1,0.503089
430,0.502879
429.9,0.502711
429.8,0.502567
429.7,0.502415
429.6,0.502181
429.5,0.501977
429.4,0.501717
429.3,0.501451
429.2,0.501295
429.1,0.501034
429,0.50083
428.9,0.500651
428.8,0.500434
428.7,0.500193
428.6,0.499952
428.5,0.499691
428.4,0.499483
428.3,0.499246
428.2,0.498927
428.1,0.498726
428,0.498471
427.9,0.498255
427.8,0.498138
427.7,0.497896
427.6,0.497567
427.5,0.497225
427.4,0.496874
427.3,0.496597
427.2,0.49635
427.1,0.496186
427,0.49599
426.9,0.49565
426.8,0.495422
426.7,0.495166
426.6,0.494832
426.5,0.49453
426.4,0.494279
426.3,0.494015
426.2,0.493776
426.1,0.493627
426,0.493295
425.9,0.492955
425.8,0.492694
425.7,0.492394
425.6,0.492113
425.5,0.491782
425.4,0.491426
425.3,0.491085
425.2,0.490766
425.1,0.490451
425,0.490114
424.9,0.489794
424.8,0.489519
424.7,0.489208
424.6,0.488958
424.5,0.488604
424.4,0.488205
424.3,0.487896
424.2,0.487553
424.1,0.487231
424,0.486897
423.9,0.486559
423.8,0.486154
423.7,0.485749
423.6,0.485423
423.5,0.485042
423.4,0.484776
423.3,0.484497
423.2,0.484236
423.1,0.483935
423,0.483522
422.9,0.483181
422.8,0.482717
422.7,0.482388
422.6,0.482109
422.5,0.481679
422.4,0.481279
422.3,0.480847
422.2,0.480368
422.1,0.479969
422,0.479561
421.9,0.479107
421.8,0.478749
421.7,0.478359
421.6,0.478082
421.5,0.477713
421.4,0.477277
421.3,0.47688
421.2,0.476382
421.1,0.475969
421,0.475582
420.9,0.47519
420.8,0.474754
420.7,0.474355
420.6,0.473919
420.5,0.473495
420.4,0.47309
420.3,0.472609
420.2,0.472244
420.1,0.471763
420,0.471356
419.9,0.470933
419.8,0.470374
419.7,0.46995
419.6,0.46953
419.5,0.469149
419.4,0.468699
419.3,0.468264
419.2,0.467746
419.1,0.467278
419,0.466882
418.9,0.466347
418.8,0.465893
418.7,0.465387
418.6,0.464851
418.5,0.464427
418.4,0.463995
418.3,0.463474
418.2,0.46305
418.1,0.462608
418,0.462061
417.9,0.46167
417.8,0.461033
417.7,0.460518
417.6,0.460023
417.5,0.45955
417.4,0.459163
417.3,0.458646
417.2,0.458162
417.1,0.457482
417,0.456978
416.9,0.456373
416.8,0.455797
416.7,0.455327
416.6,0.454796
416.5,0.45429
416.4,0.453818
416.3,0.453286
416.2,0.452729
416.1,0.452236
416,0.451613
415.9,0.451066
415.8,0.45049
415.7,0.449956
415.6,0.449493
415.5,0.448983
415.4,0.448434
415.3,0.447814
415.2,0.44719
415.1,0.446585
415,0.445973
414.9,0.445381
414.8,0.444775
414.7,0.444256
414.6,0.443745
414.5,0.443144
414.4,0.442565
414.3,0.441953
414.2,0.441258
414.1,0.440676
414,0.440087
413.9,0.439474
413.8,0.438908
413.7,0.438348
413.6,0.437765
413.5,0.437077
413.4,0.436502
413.3,0.435903
413.2,0.435274
413.1,0.434713
413,0.434123
412.9,0.433426
412.8,0.432765
412.7,0.432216
412.6,0.43153
412.5,0.430918
412.4,0.430354
412.3,0.429602
412.2,0.42895
412.1,0.428383
412,0.427676
411.9,0.427112
411.8,0.426564
411.7,0.425852
411.6,0.425287
411.5,0.424601
411.4,0.423834
411.3,0.42315
411.2,0.422392
411.1,0.4217
411,0.421054
410.9,0.420484
410.8,0.419847
410.7,0.419117
410.6,0.418418
410.5,0.417578
410.4,0.416831
410.3,0.41618
410.2,0.415425
410.1,0.414726
410,0.414011
409.9,0.413308
409.8,0.412664
409.7,0.411942
409.6,0.411129
409.5,0.410322
409.4,0.409543
409.3,0.408879
409.2,0.408203
409.1,0.407468
409,0.40667
408.9,0.405971
408.8,0.405207
408.7,0.404427
408.6,0.403732
408.5,0.402874
408.4,0.402156
408.3,0.401485
408.2,0.400725
408.1,0.400019
408,0.399247
407.9,0.398461
407.8,0.397651
407.7,0.396847
407.6,0.396131
407.5,0.395384
407.4,0.394711
407.3,0.393811
407.2,0.393023
407.1,0.392231
407,0.391331
406.9,0.390653
406.8,0.389787
406.7,0.388917
406.6,0.388116
406.5,0.387322
406.4,0.38662
406.3,0.385779
406.2,0.385033
406.1,0.384342
406,0.383523
405.9,0.382838
405.8,0.382111
405.7,0.381249
405.6,0.380385
405.5,0.37955
405.4,0.378602
405.3,0.377654
405.2,0.376844
405.1,0.375973
405,0.375148
404.9,0.374324
404.8,0.373404
404.7,0.372519
404.6,0.371705
404.5,0.370966
404.4,0.370131
404.3,0.36941
404.2,0.368563
404.1,0.367605
404,0.366886
403.9,0.365956
403.8,0.365
403.7,0.364208
403.6,0.363301
403.5,0.362393
403.4,0.36158
403.3,0.36073
403.2,0.359853
403.1,0.359017
403,0.358212
402.9,0.357366
402.8,0.356616
402.7,0.35579
402.6,0.354976
402.5,0.35413
402.4,0.353112
402.3,0.352107
402.2,0.351167
402.1,0.350341
402,0.349354
401.9,0.348542
401.8,0.347736
401.7,0.346794
401.6,0.346051
401.5,0.345247
401.4,0.34418
401.3,0.343298
401.2,0.342589
401.1,0.341733
401,0.340953
400.9,0.339915
400.8,0.338857
400.7,0.337963
400.6,0.33697
400.5,0.336152
400.4,0.335226
400.3,0.334231
400.2,0.333489
400.1,0.332566
400,0.331651
